File: Calibration/FTIR-PolystyreneRAL(1.5mil)_2cm-1.csv
3.999158e+002,1.818494e-002
4.119687e+002,2.939922e-002
4.240216e+002,5.178800e-002
4.360746e+002,8.048041e-002
4.481275e+002,8.989371e-002
4.601804e+002,7.126492e-002
4.722333e+002,4.732697e-002
4.842862e+002,4.607971e-002
4.963391e+002,8.295061e-002
5.083921e+002,1.515993e-001
5.204449e+002,2.286208e-001
5.324979e+002,5.975002e-001
5.445508e+002,8.134778e-001
5.566037e+002,5.484299e-001
5.686566e+002,3.770396e-001
5.807095e+002,2.065309e-001
5.927625e+002,1.654681e-001
6.048154e+002,1.505700e-001
6.168683e+002,1.632025e-001
6.289212e+002,1.410788e-001
6.409741e+002,7.509517e-002
6.530270e+002,9.902750e-002
6.650800e+002,1.844890e-001
6.771329e+002,2.256485e-001
6.891858e+002,6.566932e-001
7.012387e+002,2.184245e+000
7.132916e+002,3.186915e-001
7.253445e+002,1.788617e-001
7.373975e+002,5.307761e-001
7.494504e+002,1.616509e+000
7.615033e+002,1.672237e+000
7.735562e+002,7.233760e-001
7.856091e+002,2.524570e-001
7.976620e+002,1.292541e-001
8.097150e+002,9.957890e-002
8.217679e+002,7.636075e-002
8.338208e+002,1.028190e-001
8.458737e+002,1.563792e-001
8.579266e+002,8.975533e-002
8.699796e+002,9.707112e-002
8.820325e+002,1.011627e-001
8.940854e+002,1.298988e-001
9.061383e+002,4.162460e-001
9.181912e+002,1.499201e-001
9.302441e+002,1.203225e-001
9.422970e+002,1.880805e-001
9.543500e+002,1.648601e-001
9.664028e+002,2.238754e-001
9.784558e+002,1.984004e-001
9.905087e+002,1.454800e-001
1.002562e+003,2.343485e-001
1.014615e+003,2.480536e-001
1.026667e+003,6.378500e-001
1.038720e+003,1.888170e-001
1.050773e+003,1.785845e-001
1.062826e+003,2.799466e-001
1.074879e+003,2.866516e-001
1.086932e+003,1.655402e-001
1.098985e+003,1.334536e-001
1.111038e+003,1.357719e-001
1.123091e+003,9.847477e-002
1.135144e+003,9.410761e-002
1.147197e+003,1.556819e-001
1.159250e+003,2.174266e-001
1.171302e+003,1.663455e-001
1.183355e+003,2.916640e-001
1.195408e+003,2.342602e-001
1.207461e+003,1.857582e-001
1.219514e+003,1.528904e-001
1.231567e+003,1.420157e-001
1.243620e+003,1.414219e-001
1.255673e+003,1.320369e-001
1.267726e+003,1.416997e-001
1.279779e+003,1.854992e-001
1.291832e+003,1.993881e-001
1.303885e+003,2.345312e-001
1.315938e+003,2.625989e-001
1.327990e+003,2.941866e-001
1.340043e+003,2.413457e-001
1.352096e+003,2.891129e-001
1.364149e+003,3.407273e-001
1.376202e+003,3.411003e-001
1.388255e+003,2.068829e-001
1.400308e+003,1.161004e-001
1.412361e+003,1.069934e-001
1.424414e+003,1.307995e-001
1.436467e+003,4.049307e-001
1.448520e+003,1.443392e+000
1.460572e+003,3.039696e-001
1.472625e+003,1.723991e-001
1.484678e+003,4.157761e-001
1.496731e+003,8.857536e-001
1.508784e+003,1.265089e-001
1.520837e+003,9.326216e-002
1.532890e+003,1.162364e-001
1.544943e+003,1.377354e-001
1.556996e+003,9.279642e-002
1.569049e+003,8.712153e-002
1.581102e+003,3.180359e-001
1.593155e+003,3.231044e-001
1.605207e+003,5.781852e-001
1.617260e+003,1.174067e-001
1.629313e+003,9.218690e-002
1.641366e+003,8.481241e-002
1.653419e+003,9.179929e-002
1.665472e+003,1.108150e-001
1.677525e+003,1.058255e-001
1.689578e+003,9.436990e-002
1.701631e+003,9.862452e-002
1.713684e+003,9.865870e-002
1.725737e+003,1.104857e-001
1.737790e+003,1.459989e-001
1.749842e+003,1.474784e-001
1.761895e+003,9.771073e-002
1.773948e+003,9.457682e-002
1.786001e+003,9.314574e-002
1.798054e+003,1.678280e-001
1.810107e+003,1.521979e-001
1.822160e+003,9.972299e-002
1.834213e+003,6.424693e-002
1.846266e+003,6.526463e-002
1.858319e+003,1.092941e-001
1.870372e+003,1.725094e-001
1.882425e+003,1.491518e-001
1.894477e+003,9.857645e-002
1.906530e+003,6.613159e-002
1.918583e+003,7.066590e-002
1.930636e+003,1.144840e-001
1.942689e+003,2.126266e-001
1.954742e+003,1.577253e-001
1.966795e+003,1.077760e-001
1.978848e+003,7.143720e-002
1.990901e+003,6.028808e-002
2.002954e+003,5.096896e-002
2.015007e+003,5.101781e-002
2.027060e+003,5.441987e-002
2.039112e+003,5.560932e-002
2.051166e+003,5.405718e-002
2.063218e+003,5.043821e-002
2.075271e+003,4.688529e-002
2.087324e+003,4.638145e-002
2.099377e+003,5.018906e-002
2.111430e+003,5.497164e-002
2.123483e+003,5.680125e-002
2.135536e+003,5.561648e-002
2.147589e+003,5.287395e-002
2.159642e+003,5.045303e-002
2.171695e+003,5.177631e-002
2.183748e+003,5.816337e-002
2.195801e+003,6.012518e-002
2.207853e+003,6.259244e-002
2.219906e+003,6.047328e-002
2.231959e+003,5.803027e-002
2.244012e+003,5.821239e-002
2.256065e+003,6.225881e-002
2.268118e+003,6.310384e-002
2.280171e+003,6.538355e-002
2.292224e+003,6.990477e-002
2.304277e+003,7.076515e-002
2.316330e+003,7.062536e-002
2.328383e+003,6.683489e-002
2.340436e+003,7.877924e-002
2.352488e+003,7.282081e-002
2.364541e+003,6.935879e-002
2.376594e+003,7.126523e-002
2.388647e+003,6.678507e-002
2.400700e+003,6.339165e-002
2.412753e+003,6.094018e-002
2.424806e+003,6.304584e-002
2.436859e+003,6.791171e-002
2.448912e+003,7.096119e-002
2.460965e+003,7.030490e-002
2.473017e+003,7.078288e-002
2.485070e+003,7.238407e-002
2.497123e+003,7.441220e-002
2.509176e+003,7.951452e-002
2.521229e+003,8.122788e-002
2.533282e+003,8.117571e-002
2.545335e+003,8.282208e-002
2.557388e+003,7.847414e-002
2.569441e+003,7.664776e-002
2.581494e+003,8.439596e-002
2.593547e+003,8.314465e-002
2.605600e+003,9.236465e-002
2.617652e+003,8.603800e-002
2.629705e+003,9.627728e-002
2.641758e+003,8.604220e-002
2.653811e+003,8.374699e-002
2.665864e+003,8.459838e-002
2.677917e+003,8.801418e-002
2.689970e+003,9.083635e-002
2.702023e+003,9.013491e-002
2.714076e+003,8.938421e-002
2.726129e+003,8.683881e-002
2.738182e+003,8.250749e-002
2.750235e+003,8.359991e-002
2.762287e+003,8.918476e-002
2.774340e+003,9.938317e-002
2.786393e+003,1.020065e-001
2.798446e+003,1.083269e-001
2.810499e+003,1.194095e-001
2.822552e+003,1.302812e-001
2.834605e+003,2.347428e-001
2.846658e+003,7.737918e-001
2.858711e+003,5.558649e-001
2.870764e+003,3.777547e-001
2.882817e+003,5.102901e-001
2.894870e+003,7.516437e-001
2.906922e+003,1.368007e+000
2.918975e+003,1.906229e+000
2.931028e+003,1.759039e+000
2.943081e+003,9.036540e-001
2.955134e+003,4.145554e-001
2.967187e+003,2.407227e-001
2.979240e+003,1.991839e-001
2.991293e+003,2.276061e-001
3.003346e+003,4.530781e-001
3.015399e+003,6.493164e-001
3.027452e+003,1.806074e+000
3.039505e+003,5.921149e-001
3.051557e+003,6.654171e-001
3.063610e+003,9.100055e-001
3.075663e+003,5.738028e-001
3.087716e+003,4.833335e-001
3.099769e+003,2.949096e-001
3.111822e+003,1.608458e-001
3.123875e+003,1.021090e-001
3.135928e+003,9.194873e-002
3.147981e+003,8.840451e-002
3.160034e+003,9.557635e-002
3.172087e+003,8.017496e-002
3.184140e+003,7.767635e-002
3.196192e+003,7.839575e-002
3.208245e+003,7.682501e-002
3.220298e+003,7.479978e-002
3.232351e+003,7.293117e-002
3.244404e+003,7.149755e-002
3.256457e+003,7.118805e-002
3.268510e+003,7.157753e-002
3.280563e+003,7.237933e-002
3.292616e+003,7.259569e-002
3.304669e+003,7.202891e-002
3.316722e+003,7.068661e-002
3.328775e+003,6.966839e-002
3.340827e+003,6.965011e-002
3.352880e+003,7.035127e-002
3.364933e+003,7.167619e-002
3.376986e+003,7.323412e-002
3.389039e+003,7.325259e-002
3.401092e+003,7.243832e-002
3.413145e+003,7.187652e-002
3.425198e+003,7.356561e-002
3.437251e+003,7.755009e-002
3.449304e+003,7.824536e-002
3.461357e+003,7.821425e-002
3.473409e+003,7.684185e-002
3.485462e+003,7.467321e-002
3.497515e+003,7.286596e-002
3.509568e+003,7.254423e-002
3.521621e+003,7.304594e-002
3.533674e+003,7.344525e-002
3.545727e+003,7.283598e-002
3.557780e+003,7.131915e-002
3.569833e+003,6.952461e-002
3.581886e+003,6.937080e-002
3.593939e+003,6.996506e-002
3.605992e+003,7.157401e-002
3.618044e+003,8.001379e-002
3.630097e+003,7.539593e-002
3.642150e+003,8.495136e-002
3.654203e+003,8.010948e-002
3.666256e+003,7.410285e-002
3.678309e+003,7.481804e-002
3.690362e+003,7.427859e-002
3.702415e+003,7.683291e-002
3.714468e+003,7.467722e-002
3.726521e+003,7.442053e-002
3.738574e+003,7.187448e-002
3.750627e+003,7.131274e-002
3.762679e+003,7.445514e-002
3.774732e+003,7.520035e-002
3.786785e+003,7.676782e-002
3.798838e+003,7.858551e-002
3.810891e+003,7.843652e-002
3.822944e+003,7.738414e-002
3.834997e+003,7.611626e-002
3.847050e+003,7.604764e-002
3.859103e+003,7.674292e-002
3.871156e+003,7.714347e-002
3.883209e+003,7.694912e-002
3.895262e+003,7.742624e-002
3.907314e+003,7.724748e-002
3.919367e+003,7.851166e-002
3.931420e+003,8.043340e-002
3.943473e+003,8.092327e-002
3.955526e+003,8.114608e-002
3.967579e+003,8.191219e-002
3.979632e+003,8.214492e-002
3.991685e+003,8.425871e-002
3.999881e+003,8.945301e-002