File: Calibration/FTIR-PolystyreneRAL(3mil)_2cm-1.csv
3.999158e+002,5.109160e-002
4.119687e+002,1.125780e-001
4.240216e+002,9.490107e-002
4.360746e+002,6.929174e-002
4.481275e+002,1.281471e-001
4.601804e+002,1.073646e-001
4.722333e+002,9.367940e-002
4.842862e+002,1.544306e-001
4.963391e+002,1.482877e-001
5.083921e+002,2.246639e-001
5.204449e+002,3.836899e-001
5.324979e+002,1.099455e+000
5.445508e+002,1.539965e+000
5.566037e+002,1.044648e+000
5.686566e+002,7.540218e-001
5.807095e+002,4.150720e-001
5.927625e+002,3.114100e-001
6.048154e+002,2.574095e-001
6.168683e+002,2.715226e-001
6.289212e+002,2.907883e-001
6.409741e+002,1.629588e-001
6.530270e+002,2.082598e-001
6.650800e+002,3.280187e-001
6.771329e+002,5.003036e-001
6.891858e+002,1.277168e+000
7.012387e+002,3.322021e+000
7.132916e+002,7.583600e-001
7.253445e+002,4.745380e-001
7.373975e+002,1.139044e+000
7.494504e+002,3.084596e+000
7.615033e+002,3.037019e+000
7.735562e+002,1.452282e+000
7.856091e+002,5.241199e-001
7.976620e+002,2.331316e-001
8.097150e+002,1.958922e-001
8.217679e+002,1.508579e-001
8.338208e+002,2.395985e-001
8.458737e+002,3.264161e-001
8.579266e+002,1.633213e-001
8.699796e+002,1.879706e-001
8.820325e+002,1.912829e-001
8.940854e+002,2.934738e-001
9.061383e+002,9.334926e-001
9.181912e+002,4.074942e-001
9.302441e+002,2.660247e-001
9.422970e+002,4.125479e-001
9.543500e+002,4.732414e-001
9.664028e+002,1.178123e+000
9.784558e+002,6.353523e-001
9.905087e+002,4.526432e-001
1.002562e+003,5.585775e-001
1.014615e+003,5.524008e-001
1.026667e+003,1.303352e+000
1.038720e+003,4.081105e-001
1.050773e+003,4.116721e-001
1.062826e+003,6.152032e-001
1.074879e+003,6.310190e-001
1.086932e+003,3.841169e-001
1.098985e+003,2.889641e-001
1.111038e+003,2.624517e-001
1.123091e+003,1.953541e-001
1.135144e+003,1.869371e-001
1.147197e+003,2.906535e-001
1.159250e+003,4.093295e-001
1.171302e+003,3.339212e-001
1.183355e+003,5.707338e-001
1.195408e+003,4.542486e-001
1.207461e+003,3.429580e-001
1.219514e+003,2.756511e-001
1.231567e+003,2.863927e-001
1.243620e+003,2.955751e-001
1.255673e+003,2.646858e-001
1.267726e+003,2.925812e-001
1.279779e+003,3.735579e-001
1.291832e+003,4.163693e-001
1.303885e+003,5.207512e-001
1.315938e+003,5.756158e-001
1.327990e+003,6.117644e-001
1.340043e+003,5.084192e-001
1.352096e+003,6.120279e-001
1.364149e+003,6.967620e-001
1.376202e+003,7.208760e-001
1.388255e+003,4.241640e-001
1.400308e+003,2.800779e-001
1.412361e+003,2.632858e-001
1.424414e+003,3.276971e-001
1.436467e+003,1.053128e+000
1.448520e+003,2.991133e+000
1.460572e+003,7.759941e-001
1.472625e+003,4.063306e-001
1.484678e+003,8.252451e-001
1.496731e+003,1.664104e+000
1.508784e+003,2.506875e-001
1.520837e+003,1.716855e-001
1.532890e+003,2.169208e-001
1.544943e+003,2.578239e-001
1.556996e+003,1.543987e-001
1.569049e+003,1.715553e-001
1.581102e+003,6.145901e-001
1.593155e+003,6.319622e-001
1.605207e+003,1.112033e+000
1.617260e+003,2.262374e-001
1.629313e+003,1.725865e-001
1.641366e+003,1.973852e-001
1.653419e+003,2.091594e-001
1.665472e+003,2.349999e-001
1.677525e+003,2.156589e-001
1.689578e+003,1.907373e-001
1.701631e+003,2.006550e-001
1.713684e+003,2.137157e-001
1.725737e+003,2.387452e-001
1.737790e+003,3.024155e-001
1.749842e+003,2.974225e-001
1.761895e+003,1.954789e-001
1.773948e+003,1.728217e-001
1.786001e+003,1.644621e-001
1.798054e+003,3.075892e-001
1.810107e+003,2.730367e-001
1.822160e+003,1.797681e-001
1.834213e+003,1.148856e-001
1.846266e+003,1.056898e-001
1.858319e+003,1.852923e-001
1.870372e+003,3.061273e-001
1.882425e+003,2.574444e-001
1.894477e+003,1.623752e-001
1.906530e+003,1.094321e-001
1.918583e+003,1.181955e-001
1.930636e+003,2.006560e-001
1.942689e+003,3.902219e-001
1.954742e+003,2.750081e-001
1.966795e+003,1.745313e-001
1.978848e+003,1.127684e-001
1.990901e+003,9.543709e-002
2.002954e+003,7.950573e-002
2.015007e+003,7.694204e-002
2.027060e+003,7.343944e-002
2.039112e+003,7.127999e-002
2.051166e+003,7.251647e-002
2.063218e+003,7.063094e-002
2.075271e+003,7.008466e-002
2.087324e+003,7.125558e-002
2.099377e+003,7.052744e-002
2.111430e+003,7.205691e-002
2.123483e+003,7.411574e-002
2.135536e+003,7.394533e-002
2.147589e+003,7.588787e-002
2.159642e+003,7.827718e-002
2.171695e+003,7.883688e-002
2.183748e+003,8.456501e-002
2.195801e+003,8.297896e-002
2.207853e+003,8.481954e-002
2.219906e+003,8.456980e-002
2.231959e+003,8.846442e-002
2.244012e+003,9.232048e-002
2.256065e+003,9.770795e-002
2.268118e+003,9.397714e-002
2.280171e+003,9.230445e-002
2.292224e+003,9.951594e-002
2.304277e+003,1.056651e-001
2.316330e+003,1.091710e-001
2.328383e+003,1.067746e-001
2.340436e+003,1.274367e-001
2.352488e+003,1.040675e-001
2.364541e+003,9.833886e-002
2.376594e+003,1.004567e-001
2.388647e+003,1.019695e-001
2.400700e+003,1.006135e-001
2.412753e+003,9.829191e-002
2.424806e+003,9.838486e-002
2.436859e+003,1.012776e-001
2.448912e+003,1.044416e-001
2.460965e+003,1.051139e-001
2.473017e+003,1.114593e-001
2.485070e+003,1.204047e-001
2.497123e+003,1.256870e-001
2.509176e+003,1.324369e-001
2.521229e+003,1.314883e-001
2.533282e+003,1.291897e-001
2.545335e+003,1.349738e-001
2.557388e+003,1.326966e-001
2.569441e+003,1.334219e-001
2.581494e+003,1.485596e-001
2.593547e+003,1.435670e-001
2.605600e+003,1.584067e-001
2.617652e+003,1.458332e-001
2.629705e+003,1.704681e-001
2.641758e+003,1.559547e-001
2.653811e+003,1.552338e-001
2.665864e+003,1.570426e-001
2.677917e+003,1.589825e-001
2.689970e+003,1.590414e-001
2.702023e+003,1.575624e-001
2.714076e+003,1.607464e-001
2.726129e+003,1.607771e-001
2.738182e+003,1.543225e-001
2.750235e+003,1.549048e-001
2.762287e+003,1.637203e-001
2.774340e+003,1.865083e-001
2.786393e+003,2.019332e-001
2.798446e+003,2.300524e-001
2.810499e+003,2.746938e-001
2.822552e+003,3.642926e-001
2.834605e+003,8.549405e-001
2.846658e+003,2.555764e+000
2.858711e+003,1.706124e+000
2.870764e+003,1.198811e+000
2.882817e+003,1.509234e+000
2.894870e+003,2.261041e+000
2.906922e+003,6.000000e+000
2.918975e+003,6.000000e+000
2.931028e+003,6.000000e+000
2.943081e+003,2.695564e+000
2.955134e+003,1.471845e+000
2.967187e+003,8.604176e-001
2.979240e+003,6.838339e-001
2.991293e+003,7.034637e-001
3.003346e+003,1.253239e+000
3.015399e+003,1.539002e+000
3.027452e+003,6.000000e+000
3.039505e+003,1.228140e+000
3.051557e+003,1.338441e+000
3.063610e+003,1.839098e+000
3.075663e+003,1.170503e+000
3.087716e+003,9.469673e-001
3.099769e+003,5.750574e-001
3.111822e+003,3.057337e-001
3.123875e+003,1.874827e-001
3.135928e+003,1.658721e-001
3.147981e+003,1.606552e-001
3.160034e+003,1.777549e-001
3.172087e+003,1.497870e-001
3.184140e+003,1.448340e-001
3.196192e+003,1.444665e-001
3.208245e+003,1.399916e-001
3.220298e+003,1.365814e-001
3.232351e+003,1.358072e-001
3.244404e+003,1.362618e-001
3.256457e+003,1.368082e-001
3.268510e+003,1.367696e-001
3.280563e+003,1.368181e-001
3.292616e+003,1.369786e-001
3.304669e+003,1.370394e-001
3.316722e+003,1.374544e-001
3.328775e+003,1.383864e-001
3.340827e+003,1.393805e-001
3.352880e+003,1.397547e-001
3.364933e+003,1.408776e-001
3.376986e+003,1.433000e-001
3.389039e+003,1.444847e-001
3.401092e+003,1.450700e-001
3.413145e+003,1.449535e-001
3.425198e+003,1.470107e-001
3.437251e+003,1.516856e-001
3.449304e+003,1.495178e-001
3.461357e+003,1.473325e-001
3.473409e+003,1.446168e-001
3.485462e+003,1.408764e-001
3.497515e+003,1.363548e-001
3.509568e+003,1.323012e-001
3.521621e+003,1.283463e-001
3.533674e+003,1.245288e-001
3.545727e+003,1.205047e-001
3.557780e+003,1.167535e-001
3.569833e+003,1.137549e-001
3.581886e+003,1.129471e-001
3.593939e+003,1.106490e-001
3.605992e+003,1.096945e-001
3.618044e+003,1.244477e-001
3.630097e+003,1.146546e-001
3.642150e+003,1.338496e-001
3.654203e+003,1.249571e-001
3.666256e+003,1.126191e-001
3.678309e+003,1.116832e-001
3.690362e+003,1.067670e-001
3.702415e+003,1.089257e-001
3.714468e+003,1.059354e-001
3.726521e+003,1.046086e-001
3.738574e+003,1.029530e-001
3.750627e+003,1.055315e-001
3.762679e+003,1.077684e-001
3.774732e+003,1.071026e-001
3.786785e+003,1.093104e-001
3.798838e+003,1.145221e-001
3.810891e+003,1.150700e-001
3.822944e+003,1.149353e-001
3.834997e+003,1.129286e-001
3.847050e+003,1.108987e-001
3.859103e+003,1.109731e-001
3.871156e+003,1.117293e-001
3.883209e+003,1.122327e-001
3.895262e+003,1.142189e-001
3.907314e+003,1.151445e-001
3.919367e+003,1.171338e-001
3.931420e+003,1.194093e-001
3.943473e+003,1.189749e-001
3.955526e+003,1.187322e-001
3.967579e+003,1.213315e-001
3.979632e+003,1.231933e-001
3.991685e+003,1.283492e-001
3.999881e+003,1.382411e-001